File: data/raw/PDMS_properties/200823_PDMS_tensile_sample1_w6.57_t0.53_L22.74_27.2C_0.2mmps_1.csv
Labview measurement
Date(mm/dd/yy) 8/23/2020,4:01 PM
EDX-10A settings
Sampling frequency(Hz), 1000
Low pass filter  (0:2kHz/1:100Hz),1
VELMEX settings
Conversion(step/mm),200
Maximum displacement (mm),
-2.000000E+0
Speed (mm/sec),
0.2
Initialheight(mm),
12
Comments,

Time[s],CH1,CH2,CH3,CH4
0.000000000000000,0.0228744,-159.892,-159.847,0.000000000000000
0.073,0.0252817,-159.892,-159.847,0.000000000000000
0.146,0.0302005,-159.892,-159.847,0.000000000000000
0.219,0.106202,-159.892,-159.847,0.000000000000000
0.292,0.0560657,-159.892,-159.847,0.000000000000000
0.365,-0.0135371,-159.892,-159.847,0.000000000000000
0.438,0.0679146,-159.892,-159.847,0.000000000000000
0.511,0.144885,-159.892,-159.847,0.000000000000000
0.584,0.118447,-159.892,-159.847,0.000000000000000
0.657,-0.135183,-159.892,-159.847,0.000000000000000
0.73,0.266041,-159.892,-159.847,0.000000000000000
0.803,0.0205505,-159.892,-159.847,0.000000000000000
0.876,0.110079,-159.892,-159.847,0.000000000000000
0.949,0.0738129,-159.892,-159.847,0.000000000000000
1.022,0.0615994,-159.892,-159.847,0.000000000000000
1.095,0.0719892,-159.892,-159.847,0.000000000000000
1.168,0.137476,-159.892,-159.847,0.000000000000000
1.241,0.110412,-159.892,-159.847,0.000000000000000
1.314,0.0406737,-159.892,-159.847,0.000000000000000
1.387,0.115185,-159.892,-159.847,0.000000000000000
1.46,0.112809,-159.892,-159.847,0.000000000000000
1.533,0.0515221,-159.892,-159.847,0.000000000000000
1.606,0.0503029,-159.892,-159.847,0.000000000000000
1.679,0.295408,-159.892,-159.847,0.000000000000000
1.752,0.131942,-159.892,-159.847,0.000000000000000
1.825,0.20117,-159.892,-159.847,0.000000000000000
1.898,0.169406,-159.892,-159.847,0.000000000000000
1.971,0.112048,-159.892,-159.847,0.000000000000000
2.044,0.203452,-159.892,-159.847,0.000000000000000
2.117,0.160475,-159.892,-159.847,0.000000000000000
2.19,0.141269,-159.892,-159.847,0.000000000000000
2.263,0.190769,-159.892,-159.847,0.000000000000000
2.336,0.173335,-159.892,-159.847,0.000000000000000
2.409,0.157901,-159.892,-159.847,0.000000000000000
2.482,-0.0710618,-159.892,-159.847,0.000000000000000
2.555,0.431988,-159.892,-159.847,0.000000000000000
2.628,0.143926,-159.892,-159.847,0.000000000000000
2.701,0.266552,-159.892,-159.847,0.000000000000000
2.774,0.232517,-159.892,-159.847,0.000000000000000
2.847,0.208913,-159.892,-159.847,0.000000000000000
2.92,0.245095,-159.892,-159.847,0.000000000000000
2.993,0.279401,-159.892,-159.847,0.000000000000000
3.066,0.216447,-159.892,-159.847,0.000000000000000
3.139,0.256506,-159.892,-159.847,0.000000000000000
3.212,0.353829,-159.892,-159.847,0.000000000000000
3.285,0.313906,-159.892,-159.847,0.000000000000000
3.358,0.106754,-159.892,-159.847,0.000000000000000
3.431,0.155598,-159.892,-159.847,0.000000000000000
3.504,0.452153,-159.892,-159.847,0.000000000000000
3.577,0.254036,-159.892,-159.847,0.000000000000000
3.65,0.301692,-159.892,-159.847,0.000000000000000
3.723,0.281652,-159.892,-159.847,0.000000000000000
3.796,0.222856,-159.892,-159.847,0.000000000000000
3.869,0.368721,-159.892,-159.847,0.000000000000000
3.942,0.303266,-159.892,-159.847,0.000000000000000
4.015,0.260935,-159.892,-159.847,0.000000000000000
4.088,0.341282,-159.892,-159.847,0.000000000000000
4.161,0.374546,-159.892,-159.847,0.000000000000000
4.234,0.414011,-159.892,-159.847,0.000000000000000
4.307,0.0843383,-159.892,-159.847,0.000000000000000
4.38,0.550632,-159.892,-159.847,0.000000000000000
4.453,0.264676,-159.892,-159.847,0.000000000000000
4.526,0.376234,-159.892,-159.847,0.000000000000000
4.599,0.320836,-159.892,-159.847,0.000000000000000
4.672,0.303516,-159.892,-159.847,0.000000000000000
4.745,0.330225,-159.892,-159.847,0.000000000000000
4.818,0.342626,-159.892,-159.847,0.000000000000000
4.891,0.3348,-159.892,-159.847,0.000000000000000
4.964,0.288957,-159.892,-159.847,0.000000000000000
5.037,0.324504,-159.892,-159.847,0.000000000000000
5.11,0.3645,-159.892,-159.847,0.000000000000000
5.183,0.231954,-159.892,-159.847,0.000000000000000
5.256,0.348118,-159.892,-159.847,0.000000000000000
5.329,0.4944,-159.892,-159.847,0.000000000000000
5.402,0.367377,-159.892,-159.847,0.000000000000000
5.475,0.40408,-159.892,-159.847,0.000000000000000
5.548,0.371837,-159.892,-159.847,0.000000000000000
5.621,0.349838,-159.892,-159.847,0.000000000000000
5.694,0.441408,-159.892,-159.847,0.000000000000000
5.767,0.366762,-159.892,-159.847,0.000000000000000
5.84,0.393857,-159.892,-159.847,0.000000000000000
5.913,0.39666,-159.892,-159.847,0.000000000000000
5.986,0.405799,-159.892,-159.847,0.000000000000000
6.059,0.372389,-159.892,-159.847,0.000000000000000
6.132,0.172772,-159.892,-159.847,0.000000000000000
6.205,0.689869,-159.892,-159.847,0.000000000000000
6.278,0.37761,-159.892,-159.847,0.000000000000000
6.351,0.50232,-159.892,-159.847,0.000000000000000
6.424,0.398848,-159.892,-159.847,0.000000000000000
6.497,0.399932,-159.892,-159.847,0.000000000000000
6.57,0.501695,-159.892,-159.847,0.000000000000000
6.643,0.443951,-159.892,-159.847,0.000000000000000
6.716,0.428392,-159.892,-159.847,0.000000000000000
6.789,0.496109,-159.892,-159.847,0.000000000000000
6.862,0.534907,-159.892,-159.847,0.000000000000000
6.935,0.525528,-159.892,-159.847,0.000000000000000
7.008,0.299128,-159.892,-159.847,0.000000000000000
7.081,0.410979,-159.892,-159.847,0.000000000000000
7.154,0.593463,-159.892,-159.847,0.000000000000000
7.227,0.455456,-159.892,-159.847,0.000000000000000
7.3,0.49268,-159.892,-159.847,0.000000000000000
7.373,0.467555,-159.892,-159.847,0.000000000000000
7.446,0.450871,-159.892,-159.847,0.000000000000000
7.519,0.54736,-159.892,-159.847,0.000000000000000
7.592,0.481384,-159.892,-159.847,0.000000000000000
7.665,0.471171,-159.892,-159.847,0.000000000000000
7.738,0.520984,-159.892,-159.847,0.000000000000000
7.811,0.570485,-159.892,-159.847,0.000000000000000
7.884,0.55701,-159.892,-159.847,0.000000000000000
7.957,0.279099,-159.892,-159.847,0.000000000000000
8.03,0.745101,-159.892,-159.847,0.000000000000000
8.103,0.445056,-159.892,-159.847,0.000000000000000
8.176,0.563429,-159.892,-159.847,0.000000000000000
8.249,0.500236,-159.892,-159.847,0.000000000000000
8.322,0.507197,-159.892,-159.847,0.000000000000000
8.395,0.53399,-159.892,-159.847,0.000000000000000
8.468,0.536887,-159.892,-159.847,0.000000000000000
8.541,0.511584,-159.892,-159.847,0.000000000000000
8.614,0.489554,-159.892,-159.847,0.000000000000000
8.687,0.513345,-159.892,-159.847,0.000000000000000
8.76,0.527539,-159.892,-159.847,0.000000000000000
8.833,0.40706,-159.892,-159.847,0.000000000000000
8.906,0.576748,-159.892,-159.847,0.000000000000000
8.979,0.630792,-159.892,-159.847,0.000000000000000
9.052,0.556875,-159.892,-159.847,0.000000000000000
9.125,0.600435,-159.892,-159.847,0.000000000000000
9.198,0.549434,-159.892,-159.847,0.000000000000000
9.271,0.534542,-159.892,-159.847,0.000000000000000
9.344,0.618068,-159.892,-159.847,0.000000000000000
9.417,0.560887,-159.892,-159.847,0.000000000000000
9.49,0.552175,-159.892,-159.847,0.000000000000000
9.563,0.615764,-159.892,-159.847,0.000000000000000
9.636,0.586127,-159.892,-159.847,0.000000000000000
9.709,0.546162,-159.892,-159.847,0.000000000000000
9.782,0.320273,-159.892,-159.847,0.000000000000000
9.855,0.873865,-159.892,-159.847,0.000000000000000
9.928,0.52954,-159.892,-159.847,0.000000000000000
10.001,0.647716,-159.892,-159.847,0.000000000000000
10.074,0.601696,-159.892,-159.847,0.000000000000000
10.147,0.550247,-159.892,-159.847,0.000000000000000
10.22,0.598059,-159.892,-159.847,0.000000000000000
10.293,0.591316,-159.892,-159.847,0.000000000000000
10.366,0.608438,-159.892,-159.847,0.000000000000000
10.439,0.618766,-159.892,-159.847,0.000000000000000
10.512,0.618995,-159.892,-159.847,0.000000000000000
10.585,0.616046,-159.892,-159.847,0.000000000000000
10.658,0.593661,-159.892,-159.847,0.000000000000000
10.731,0.600112,-159.892,-159.847,0.000000000000000
10.804,0.603791,-159.892,-159.847,0.000000000000000
10.877,0.598674,-159.892,-159.847,0.000000000000000
10.95,0.595235,-159.892,-159.847,0.000000000000000
11.023,0.603374,-159.892,-159.847,0.000000000000000
11.096,0.588044,-159.892,-159.847,0.000000000000000
11.169,0.606094,-159.892,-159.847,0.000000000000000
11.242,0.617119,-159.892,-159.847,0.000000000000000
11.315,0.592036,-159.892,-159.847,0.000000000000000
11.388,0.58201,-159.892,-159.847,0.000000000000000
11.461,0.59289,-159.892,-159.847,0.000000000000000
11.534,0.60849,-159.892,-159.847,0.000000000000000
11.607,0.589503,-159.892,-159.847,0.000000000000000
11.68,0.561981,-159.892,-159.847,0.000000000000000
11.753,0.602884,-159.892,-159.847,0.000000000000000
11.826,0.602613,-159.892,-159.847,0.000000000000000
11.899,0.590649,-159.892,-159.847,0.000000000000000
11.972,0.597746,-159.892,-159.847,0.000000000000000
12.045,0.58894,-159.892,-159.847,0.000000000000000
12.118,0.604854,-159.892,-159.847,0.000000000000000
12.191,0.600122,-159.892,-159.847,0.000000000000000
12.264,0.591858,-159.892,-159.847,0.000000000000000
12.337,0.596319,-159.892,-159.847,0.000000000000000
12.41,0.594109,-159.892,-159.847,0.000000000000000
12.483,0.581687,-159.892,-159.847,0.000000000000000
12.556,0.606896,-159.892,-159.847,0.000000000000000
12.629,0.591316,-159.892,-159.847,0.000000000000000
12.702,0.597965,-159.892,-159.847,0.000000000000000
12.775,0.592088,-159.892,-159.847,0.000000000000000
12.848,0.597298,-159.892,-159.847,0.000000000000000
12.921,0.607834,-159.892,-159.847,0.000000000000000
12.994,0.586419,-159.892,-159.847,0.000000000000000
13.067,0.607094,-159.892,-159.847,0.000000000000000
13.14,0.607865,-159.892,-159.847,0.000000000000000
13.213,0.575987,-159.892,-159.847,0.000000000000000
13.286,0.591494,-159.892,-159.847,0.000000000000000
13.359,0.596569,-159.892,-159.847,0.000000000000000
13.432,0.584084,-159.892,-159.847,0.000000000000000
13.505,0.611857,-159.892,-159.847,0.000000000000000
13.578,0.583615,-159.892,-159.847,0.000000000000000
13.651,0.586106,-159.892,-159.847,0.000000000000000
13.724,0.592984,-159.892,-159.847,0.000000000000000
13.797,0.583073,-159.892,-159.847,0.000000000000000
13.87,0.599435,-159.892,-159.847,0.000000000000000
13.943,0.594641,-159.892,-159.847,0.000000000000000
14.016,0.589461,-159.892,-159.847,0.000000000000000
14.089,0.597903,-159.892,-159.847,0.000000000000000
14.149,0.586971,-159.892,-159.847,0.000000000000000